#Resonance data for the Rb 85 and 87 isotopes.
#unit scales
freq = 1e3
sweep = 1
horiz = 1
#         ;  Rb 87    ;   Rb 85   
#freq(kHz);sweep;horiz;sweep;horiz
100;0.3974;1.84e-3;0.5134;1.84e-3
150;0.5110;1.84e-3;0.6850;1.84e-3
200;0.6265;1.84e-3;0.8575;1.84e-3
250;0.4843;0.0108;0.7743;0.0108
300;0.2327;0.0239;0.5790;0.0239
350;0.1553;0.0308;0.5596;0.0308
400;0.2728;0.0308;0.7333;0.0308
450;0.3880;0.0308;0.9069;0.0308
500;0.1347;0.0440;0.7126;0.0440
550;0.1486;0.0477;0.7828;0.0477
600;0.2413;0.0485;0.9330;0.0485
650;0.3565;0.0485;0.7178;0.0623
700;0.2671;0.0558;0.4578;0.0778
750;0.1556;0.0640;0.4460;0.0844
800;0.2695;0.0640;0.4736;0.0897
850;0.2678;0.0680;0.6453;0.0897
900;0.3840;0.0680;0.8175;0.0897
950;0.4989;0.0680;0.8299;0.0954
1e3;0.5807;0.0693;0.9125;0.0986
